Chlorine                                                                
     1
    17
 1.000000
     2
     6    92
 ENERGY LIST
  1.0000E-03  1.0000E-04  5.0000E-04  1.5000E-03  2.0000E-03  2.8224E-03
  2.8224E-03  3.0000E-03  4.0000E-03  5.0000E-03  6.0000E-03  8.0000E-03
  1.0000E-02  1.5000E-02  2.0000E-02  3.0000E-02  4.0000E-02  5.0000E-02
  6.0000E-02  8.0000E-02  1.0000E-01  1.5000E-01  2.0000E-01  2.5000E-01
  3.0000E-01  3.5000E-01  4.0000E-01  4.5000E-01  5.0000E-01  5.5000E-01
  6.0000E-01  6.5000E-01  7.5000E-01  8.0000E-01  8.5000E-01  9.5000E-01
  1.0000E+00  1.0220E+00  1.2500E+00  1.3000E+00  1.4000E+00  1.5000E+00
  1.6000E+00  1.8000E+00  2.0000E+00  2.0440E+00  2.2000E+00  2.6000E+00
  3.0000E+00  4.0000E+00  5.0000E+00  6.0000E+00  7.0000E+00  8.0000E+00
  9.0000E+00  1.0000E+01  1.1000E+01  1.2000E+01  1.3000E+01  1.4000E+01
  1.5000E+01  1.6000E+01  1.8000E+01  2.0000E+01  2.2000E+01  2.4000E+01
  2.6000E+01  2.8000E+01  3.0000E+01  4.0000E+01  5.0000E+01  6.0000E+01
  8.0000E+01  1.0000E+02  1.5000E+02  2.0000E+02  3.0000E+02  4.0000E+02
  5.0000E+02  6.0000E+02  8.0000E+02  1.0000E+03  1.5000E+03  2.0000E+03
  3.0000E+03  4.0000E+03  5.0000E+03  6.0000E+03  8.0000E+03  1.0000E+04
  1.5000E+04  2.0000E+04  3.0000E+04  4.0000E+04  5.0000E+04  6.0000E+04
  8.0000E+04  1.0000E+05
 COHERENT SCATTERING CROSS SECTION
  3.0338E+00  5.5812E+01  3.6499E+00  2.7960E+00  2.5310E+00  2.1165E+00
  2.1165E+00  2.0384E+00  1.6616E+00  1.3922E+00  1.1964E+00  9.2746E-01
  7.4146E-01  4.4861E-01  2.9556E-01  1.5831E-01  1.0005E-01  6.9118E-02
  5.0518E-02  3.0219E-02  2.0044E-02  9.3442E-03  5.3779E-03  3.4846E-03
  2.4375E-03  1.7991E-03  1.3817E-03  1.0940E-03  8.8754E-04  7.3436E-04
  6.1763E-04  5.2665E-04  3.9602E-04  3.4822E-04  3.0858E-04  2.4713E-04
  2.2303E-04  2.1352E-04  1.4286E-04  1.3210E-04  1.1391E-04  9.9235E-05
  8.7222E-05  6.8925E-05  5.5834E-05  5.3456E-05  4.6145E-05  3.3039E-05
  2.4817E-05  1.3965E-05  8.9382E-06  6.2068E-06  4.5608E-06  3.4907E-06
  2.7586E-06  2.2337E-06  1.8464E-06  1.5517E-06  1.3222E-06  1.1401E-06
  9.9319E-07  8.7293E-07  6.8965E-07  5.5868E-07  4.6169E-07  3.8797E-07
  3.3056E-07  2.8503E-07  2.4834E-07  1.3966E-07  8.9382E-08  6.2068E-08
  3.4907E-08  2.2337E-08  9.9302E-09  5.5851E-09  2.4834E-09  1.3965E-09
  8.9382E-10  6.2068E-10  3.4907E-10  2.2337E-10  9.9302E-11  5.5851E-11
  2.4834E-11  1.3965E-11  8.9382E-12  6.2068E-12  3.4907E-12  2.2337E-12
  9.9302E-13  5.5851E-13  2.4834E-13  1.3965E-13  8.9382E-14  6.2068E-14
  3.4907E-14  2.2337E-14
 INCOHERENT SCATTERING CROSS SECTION
  8.5560E-03  6.5596E-03  2.8536E-03  1.6912E-02  2.5853E-02  3.9731E-02
  3.9731E-02  4.2483E-02  5.6208E-02  6.7096E-02  7.5810E-02  8.9348E-02
  9.9999E-02  1.1907E-01  1.3051E-01  1.4106E-01  1.4464E-01  1.4539E-01
  1.4466E-01  1.4114E-01  1.3662E-01  1.2534E-01  1.1578E-01  1.0790E-01
  1.0134E-01  9.5801E-02  9.1047E-02  8.6912E-02  8.3267E-02  8.0021E-02
  7.7101E-02  7.4456E-02  6.9831E-02  6.7793E-02  6.5906E-02  6.2515E-02
  6.0981E-02  6.0336E-02  5.4543E-02  5.3455E-02  5.1433E-02  4.9583E-02
  4.7881E-02  4.4868E-02  4.2313E-02  4.1804E-02  4.0098E-02  3.6336E-02
  3.3293E-02  2.7773E-02  2.3985E-02  2.1199E-02  1.9059E-02  1.7343E-02
  1.5943E-02  1.4771E-02  1.3778E-02  1.2922E-02  1.2172E-02  1.1517E-02
  1.0934E-02  1.0413E-02  9.5158E-03  8.7752E-03  8.1501E-03  7.6167E-03
  7.1530E-03  6.7470E-03  6.3886E-03  5.0772E-03  4.2381E-03  3.6521E-03
  2.8792E-03  2.3900E-03  1.7020E-03  1.3345E-03  9.4580E-04  7.4078E-04
  6.1321E-04  5.2505E-04  4.1005E-04  3.3735E-04  2.3560E-04  1.8226E-04
  1.2679E-04  9.7859E-05  8.0006E-05  6.7844E-05  5.2284E-05  4.2687E-05
  2.9488E-05  2.2677E-05  1.5639E-05  1.2006E-05  9.7774E-06  8.2656E-06
  6.3376E-06  5.1554E-06
 PHOTOELECTRIC ABSORPTION CROSS SECTION
  2.8282E+03  1.2035E+06  1.7498E+04  9.7434E+02  4.4946E+02  1.7530E+02
  1.6344E+03  1.4707E+03  7.0205E+02  3.8865E+02  2.3713E+02  1.0649E+02
  5.6412E+01  1.7275E+01  7.3143E+00  2.1267E+00  8.7191E-01  4.3383E-01
  2.4426E-01  9.8249E-02  4.8343E-02  1.3360E-02  5.4187E-03  2.7254E-03
  1.5750E-03  1.0027E-03  6.8523E-04  4.9439E-04  3.7268E-04  2.9108E-04
  2.3339E-04  1.9100E-04  1.3598E-04  1.1828E-04  1.0468E-04  8.3170E-05
  7.3568E-05  6.9559E-05  4.7120E-05  4.4010E-05  3.8546E-05  3.4075E-05
  3.0471E-05  2.5063E-05  2.1182E-05  2.0469E-05  1.8267E-05  1.4258E-05
  1.1642E-05  7.9072E-06  5.9537E-06  4.7613E-06  3.9629E-06  3.3905E-06
  2.9607E-06  2.6278E-06  2.3611E-06  2.1420E-06  1.9619E-06  1.8091E-06
  1.6774E-06  1.5639E-06  1.3774E-06  1.2307E-06  1.1119E-06  1.0143E-06
  9.3221E-07  8.6240E-07  8.0227E-07  5.9503E-07  4.7273E-07  3.9222E-07
  2.9251E-07  2.3322E-07  1.5473E-07  1.1578E-07  7.6999E-08  5.7686E-08
  4.6118E-08  3.8406E-08  2.8792E-08  2.3034E-08  1.5344E-08  1.1505E-08
  7.6677E-09  5.7499E-09  4.5999E-09  3.8338E-09  2.8741E-09  2.3000E-09
  1.5332E-09  1.1498E-09  7.6660E-10  5.7482E-10  4.5982E-10  3.8321E-10
  2.8741E-10  2.3000E-10
 PAIR PROD. CROSS SECTION (ATOMIC NUCLEUS)
  0.0000E-01  0.0000E-01  0.0000E-01  0.0000E-01  0.0000E-01  0.0000E-01
  0.0000E-01  0.0000E-01  0.0000E-01  0.0000E-01  0.0000E-01  0.0000E-01
  0.0000E-01  0.0000E-01  0.0000E-01  0.0000E-01  0.0000E-01  0.0000E-01
  0.0000E-01  0.0000E-01  0.0000E-01  0.0000E-01  0.0000E-01  0.0000E-01
  0.0000E-01  0.0000E-01  0.0000E-01  0.0000E-01  0.0000E-01  0.0000E-01
  0.0000E-01  0.0000E-01  0.0000E-01  0.0000E-01  0.0000E-01  0.0000E-01
  0.0000E-01  0.0000E-01  4.2415E-05  6.8165E-05  1.3723E-04  2.2711E-04
  3.3468E-04  5.9156E-04  8.8788E-04  9.5667E-04  1.2060E-03  1.8601E-03
  2.5089E-03  4.0428E-03  5.4068E-03  6.6247E-03  7.7101E-03  8.6851E-03
  9.5701E-03  1.0372E-02  1.1099E-02  1.1766E-02  1.2385E-02  1.2961E-02
  1.3497E-02  1.4002E-02  1.4924E-02  1.5750E-02  1.6495E-02  1.7173E-02
  1.7802E-02  1.8362E-02  1.8889E-02  2.1080E-02  2.2711E-02  2.3985E-02
  2.5853E-02  2.7212E-02  2.9420E-02  3.0779E-02  3.2376E-02  3.3293E-02
  3.3922E-02  3.4363E-02  3.4958E-02  3.5349E-02  3.5909E-02  3.6215E-02
  3.6538E-02  3.6725E-02  3.6843E-02  3.6911E-02  3.7030E-02  3.7081E-02
  3.7183E-02  3.7234E-02  3.7285E-02  3.7302E-02  3.7319E-02  3.7336E-02
  3.7353E-02  3.7353E-02
 PAIR PROD. CROSS SECTION (ATOMIC ELECTRONS)
  0.0000E-01  0.0000E-01  0.0000E-01  0.0000E-01  0.0000E-01  0.0000E-01
  0.0000E-01  0.0000E-01  0.0000E-01  0.0000E-01  0.0000E-01  0.0000E-01
  0.0000E-01  0.0000E-01  0.0000E-01  0.0000E-01  0.0000E-01  0.0000E-01
  0.0000E-01  0.0000E-01  0.0000E-01  0.0000E-01  0.0000E-01  0.0000E-01
  0.0000E-01  0.0000E-01  0.0000E-01  0.0000E-01  0.0000E-01  0.0000E-01
  0.0000E-01  0.0000E-01  0.0000E-01  0.0000E-01  0.0000E-01  0.0000E-01
  0.0000E-01  0.0000E-01  0.0000E-01  0.0000E-01  0.0000E-01  0.0000E-01
  0.0000E-01  0.0000E-01  0.0000E-01  0.0000E-01  1.1140E-07  3.3059E-06
  1.1651E-05  4.7579E-05  9.4784E-05  1.4556E-04  1.9619E-04  2.4545E-04
  2.9251E-04  3.3735E-04  3.7999E-04  4.2007E-04  4.5812E-04  4.9430E-04
  5.2862E-04  5.6123E-04  6.2204E-04  6.7759E-04  7.2855E-04  7.7560E-04
  8.1925E-04  8.5985E-04  8.9773E-04  1.0564E-03  1.1787E-03  1.2769E-03
  1.4272E-03  1.5388E-03  1.7275E-03  1.8498E-03  2.0044E-03  2.0978E-03
  2.1624E-03  2.2116E-03  2.2779E-03  2.3220E-03  2.3900E-03  2.4274E-03
  2.4698E-03  2.4953E-03  2.5106E-03  2.5208E-03  2.5344E-03  2.5429E-03
  2.5565E-03  2.5632E-03  2.5700E-03  2.5734E-03  2.5768E-03  2.5785E-03
  2.5802E-03  2.5819E-03
