Vanadium                                                                
     1
    23
 1.000000
     2
     9    89
 ENERGY LIST
  1.0000E-03  1.0000E-04  5.0000E-04  1.5000E-03  2.0000E-03  3.0000E-03
  4.0000E-03  5.0000E-03  5.4651E-03
  5.4651E-03  6.0000E-03  8.0000E-03  1.0000E-02  1.5000E-02  2.0000E-02
  3.0000E-02  4.0000E-02  5.0000E-02  6.0000E-02  8.0000E-02  1.0000E-01
  1.5000E-01  2.0000E-01  2.5000E-01  2.5000E-01  3.0000E-01  4.0000E-01
  4.5000E-01  5.0000E-01  5.5000E-01  6.0000E-01  6.5000E-01  7.5000E-01
  8.0000E-01  8.5000E-01  9.5000E-01  1.0000E+00  1.0220E+00  1.2500E+00
  1.3000E+00  1.4000E+00  1.5000E+00  1.6000E+00  1.8000E+00  2.0000E+00
  2.0440E+00  2.2000E+00  2.6000E+00  3.0000E+00  4.0000E+00  5.0000E+00
  6.0000E+00  7.0000E+00  8.0000E+00  9.0000E+00  1.0000E+01  1.1000E+01
  1.2000E+01  1.3000E+01  1.4000E+01  1.5000E+01  1.6000E+01  1.8000E+01
  2.0000E+01  2.2000E+01  2.4000E+01  2.6000E+01  2.8000E+01  3.0000E+01
  4.0000E+01  5.0000E+01  6.0000E+01  8.0000E+01  1.0000E+02  1.5000E+02
  2.0000E+02  3.0000E+02  4.0000E+02  5.0000E+02  6.0000E+02  8.0000E+02
  1.0000E+03  1.5000E+03  2.0000E+03  3.0000E+03  4.0000E+03  5.0000E+03
  6.0000E+03  8.0000E+03  1.0000E+04  1.5000E+04  2.0000E+04  3.0000E+04
  4.0000E+04  5.0000E+04  6.0000E+04  8.0000E+04  1.0000E+05
 COHERENT SCATTERING CROSS SECTION
  3.8219E+00  3.7370E+01  4.5411E+00  3.5240E+00  3.2297E+00  2.7060E+00
  2.2698E+00  1.9116E+00  1.7697E+00
  1.7697E+00  1.6243E+00  1.2176E+00  9.6063E-01  6.0882E-01  4.1896E-01
  2.2780E-01  1.4387E-01  9.9929E-02  7.3720E-02  4.4840E-02  3.0015E-02
  1.4139E-02  8.1794E-03  5.3222E-03  5.3222E-03  3.7345E-03  2.1244E-03
  1.6843E-03  1.3678E-03  1.1324E-03  9.5271E-04  8.1260E-04  6.1132E-04
  5.3765E-04  4.7655E-04  3.8186E-04  3.4472E-04  3.3006E-04  2.2083E-04
  2.0420E-04  1.7611E-04  1.5345E-04  1.3488E-04  1.0660E-04  8.6357E-05
  8.2681E-05  7.1379E-05  5.1114E-05  3.8397E-05  2.1598E-05  1.3820E-05
  9.6016E-06  7.0540E-06  5.4013E-06  4.2676E-06  3.4567E-06  2.8573E-06
  2.4010E-06  2.0451E-06  1.7638E-06  1.5368E-06  1.3500E-06  1.0669E-06
  8.6416E-07  7.1415E-07  6.0007E-07  5.1141E-07  4.4095E-07  3.8409E-07
  2.1598E-07  1.3831E-07  9.6016E-08  5.4013E-08  3.4567E-08  1.5356E-08
  8.6405E-09  3.8409E-09  2.1598E-09  1.3831E-09  9.6016E-10  5.4001E-10
  3.4567E-10  1.5356E-10  8.6405E-11  3.8409E-11  2.1598E-11  1.3831E-11
  9.6016E-12  5.4001E-12  3.4567E-12  1.5356E-12  8.6405E-13  3.8409E-13
  2.1598E-13  1.3831E-13  9.6016E-14  5.4001E-14  3.4567E-14
 INCOHERENT SCATTERING CROSS SECTION
  1.0713E-02  5.0052E-02  4.8077E-03  1.7969E-02  2.4341E-02  3.5950E-02
  4.6530E-02  5.5964E-02  5.9983E-02
  5.9983E-02  6.4334E-02  7.8141E-02  8.8627E-02  1.0580E-01  1.1640E-01
  1.2767E-01  1.3193E-01  1.3311E-01  1.3288E-01  1.3039E-01  1.2673E-01
  1.1693E-01  1.0833E-01  1.0114E-01  1.0114E-01  9.5094E-02  8.5542E-02
  8.1689E-02  7.8283E-02  7.5240E-02  7.2502E-02  7.0024E-02  6.5691E-02
  6.3778E-02  6.2004E-02  5.8818E-02  5.7382E-02  5.6779E-02  5.1330E-02
  5.0304E-02  4.8401E-02  4.6672E-02  4.5090E-02  4.2280E-02  3.9839E-02
  3.9343E-02  3.7703E-02  3.4179E-02  3.1351E-02  2.6150E-02  2.2591E-02
  1.9967E-02  1.7945E-02  1.6326E-02  1.5014E-02  1.3914E-02  1.2968E-02
  1.2165E-02  1.1462E-02  1.0843E-02  1.0294E-02  9.8037E-03  8.9596E-03
  8.2622E-03  7.6746E-03  7.1710E-03  6.7348E-03  6.3530E-03  6.0149E-03
  4.7795E-03  3.9898E-03  3.4377E-03  2.7107E-03  2.2508E-03  1.6030E-03
  1.2566E-03  8.9053E-04  6.9748E-04  5.7737E-04  4.9438E-04  3.8610E-04
  3.1765E-04  2.2177E-04  1.7165E-04  1.1940E-04  9.2150E-05  7.5340E-05
  6.3884E-05  4.9225E-05  4.0194E-05  2.7769E-05  2.1350E-05  1.4730E-05
  1.1305E-05  9.2067E-06  7.7822E-06  5.9676E-06  4.8552E-06
 PHOTOELECTRIC ABSORPTION CROSS SECTION
  6.4913E+03  2.1405E+06  3.7186E+04  2.3383E+03  1.1027E+03  3.7156E+02
  1.6893E+02  9.0944E+01  7.0930E+01
  5.8517E+02  4.6707E+02  2.2036E+02  1.2070E+02  3.9106E+01  1.7141E+01
  5.2086E+00  2.1965E+00  1.1144E+00  6.3719E-01  2.6185E-01  1.3098E-01
  3.7108E-02  1.5285E-02  7.7721E-03  7.7721E-03  4.5265E-03  1.9896E-03
  1.4408E-03  1.0889E-03  8.5177E-04  6.8412E-04  5.6118E-04  4.0053E-04
  3.4791E-04  3.0697E-04  2.4342E-04  2.1634E-04  2.0522E-04  1.3890E-04
  1.2957E-04  1.1341E-04  1.0024E-04  8.9549E-05  7.3441E-05  6.1957E-05
  5.9865E-05  5.3386E-05  4.1506E-05  3.3763E-05  2.2804E-05  1.7094E-05
  1.3642E-05  1.1322E-05  9.6701E-06  8.4336E-06  7.4748E-06  6.7088E-06
  6.0858E-06  5.5668E-06  5.1294E-06  4.7547E-06  4.4308E-06  3.9000E-06
  3.4815E-06  3.1446E-06  2.8668E-06  2.6339E-06  2.4353E-06  2.2650E-06
  1.6787E-06  1.3323E-06  1.1049E-06  8.2350E-07  6.5634E-07  4.3527E-07
  3.2569E-07  2.1657E-07  1.6219E-07  1.2968E-07  1.0800E-07  8.0955E-08
  6.4735E-08  4.3137E-08  3.2344E-08  2.1563E-08  1.6160E-08  1.2933E-08
  1.0775E-08  8.0813E-09  6.4653E-09  4.3102E-09  3.2320E-09  2.1551E-09
  1.6160E-09  1.2933E-09  1.0773E-09  8.0801E-10  6.4641E-10
 PAIR PROD. CROSS SECTION (ATOMIC NUCLEUS)
  0.0000E-01  0.0000E-01  0.0000E-01  0.0000E-01  0.0000E-01  0.0000E-01
  0.0000E-01  0.0000E-01  0.0000E-01
  0.0000E-01  0.0000E-01  0.0000E-01  0.0000E-01  0.0000E-01  0.0000E-01
  0.0000E-01  0.0000E-01  0.0000E-01  0.0000E-01  0.0000E-01  0.0000E-01
  0.0000E-01  0.0000E-01  0.0000E-01  0.0000E-01  0.0000E-01  0.0000E-01
  0.0000E-01  0.0000E-01  0.0000E-01  0.0000E-01  0.0000E-01  0.0000E-01
  0.0000E-01  0.0000E-01  0.0000E-01  0.0000E-01  0.0000E-01  5.7950E-05
  9.2225E-05  1.8289E-04  2.9968E-04  4.3914E-04  7.7304E-04  1.1590E-03
  1.2484E-03  1.5706E-03  2.4053E-03  3.2250E-03  5.1696E-03  6.8897E-03
  8.4241E-03  9.7883E-03  1.1015E-02  1.2129E-02  1.3134E-02  1.4044E-02
  1.4883E-02  1.5664E-02  1.6385E-02  1.7059E-02  1.7685E-02  1.8844E-02
  1.9872E-02  2.0806E-02  2.1657E-02  2.2438E-02  2.3147E-02  2.3809E-02
  2.6504E-02  2.8526E-02  3.0098E-02  3.2439E-02  3.4129E-02  3.6848E-02
  3.8503E-02  4.0454E-02  4.1600E-02  4.2345E-02  4.2889E-02  4.3610E-02
  4.4083E-02  4.4769E-02  4.5135E-02  4.5549E-02  4.5762E-02  4.5904E-02
  4.5998E-02  4.6116E-02  4.6199E-02  4.6305E-02  4.6365E-02  4.6436E-02
  4.6459E-02  4.6483E-02  4.6495E-02  4.6518E-02  4.6530E-02
 PAIR PROD. CROSS SECTION (ATOMIC ELECTRONS)
  0.0000E-01  0.0000E-01  0.0000E-01  0.0000E-01  0.0000E-01  0.0000E-01
  0.0000E-01  0.0000E-01  0.0000E-01
  0.0000E-01  0.0000E-01  0.0000E-01  0.0000E-01  0.0000E-01  0.0000E-01
  0.0000E-01  0.0000E-01  0.0000E-01  0.0000E-01  0.0000E-01  0.0000E-01
  0.0000E-01  0.0000E-01  0.0000E-01  0.0000E-01  0.0000E-01  0.0000E-01
  0.0000E-01  0.0000E-01  0.0000E-01  0.0000E-01  0.0000E-01  0.0000E-01
  0.0000E-01  0.0000E-01  0.0000E-01  0.0000E-01  0.0000E-01  0.0000E-01
  0.0000E-01  0.0000E-01  0.0000E-01  0.0000E-01  0.0000E-01  0.0000E-01
  0.0000E-01  1.0497E-07  3.1139E-06  1.0971E-05  4.4780E-05  8.9218E-05
  1.3701E-04  1.8465E-04  2.3088E-04  2.7521E-04  3.1729E-04  3.5725E-04
  3.9496E-04  4.3055E-04  4.6447E-04  4.9663E-04  5.2725E-04  5.8399E-04
  6.3589E-04  6.8353E-04  7.2751E-04  7.6805E-04  8.0588E-04  8.4123E-04
  9.8841E-04  1.1015E-03  1.1928E-03  1.3311E-03  1.4328E-03  1.6054E-03
  1.7165E-03  1.8536E-03  1.9376E-03  1.9967E-03  2.0392E-03  2.0995E-03
  2.1409E-03  2.2024E-03  2.2367E-03  2.2757E-03  2.2993E-03  2.3135E-03
  2.3230E-03  2.3360E-03  2.3442E-03  2.3561E-03  2.3632E-03  2.3702E-03
  2.3738E-03  2.3762E-03  2.3773E-03  2.3797E-03  2.3809E-03
