Argon                                                                   
     1
    18
 1.000000
     2
     7    91
 ENERGY LIST
  1.0000E-03  1.0000E-04  5.0000E-04  1.5000E-03  2.0000E-03  3.0000E-03
  3.2029E-03
  3.2029E-03  4.0000E-03  5.0000E-03  6.0000E-03  8.0000E-03  1.0000E-02
  1.5000E-02  2.0000E-02  3.0000E-02  4.0000E-02  5.0000E-02  6.0000E-02
  8.0000E-02  1.0000E-01  1.5000E-01  2.0000E-01  2.5000E-01  2.5000E-01
  3.0000E-01  4.0000E-01  4.5000E-01  5.0000E-01  5.5000E-01  6.0000E-01
  6.5000E-01  7.5000E-01  8.0000E-01  8.5000E-01  9.5000E-01  1.0000E+00
  1.0220E+00  1.2500E+00  1.3000E+00  1.4000E+00  1.5000E+00  1.6000E+00
  1.8000E+00  2.0000E+00  2.0440E+00  2.2000E+00  2.6000E+00  3.0000E+00
  4.0000E+00  5.0000E+00  6.0000E+00  7.0000E+00  8.0000E+00  9.0000E+00
  1.0000E+01  1.1000E+01  1.2000E+01  1.3000E+01  1.4000E+01  1.5000E+01
  1.6000E+01  1.8000E+01  2.0000E+01  2.2000E+01  2.4000E+01  2.6000E+01
  2.8000E+01  3.0000E+01  4.0000E+01  5.0000E+01  6.0000E+01  8.0000E+01
  1.0000E+02  1.5000E+02  2.0000E+02  3.0000E+02  4.0000E+02  5.0000E+02
  6.0000E+02  8.0000E+02  1.0000E+03  1.5000E+03  2.0000E+03  3.0000E+03
  4.0000E+03  5.0000E+03  6.0000E+03  8.0000E+03  1.0000E+04  1.5000E+04
  2.0000E+04  3.0000E+04  4.0000E+04  5.0000E+04  6.0000E+04  8.0000E+04
  1.0000E+05
 COHERENT SCATTERING CROSS SECTION
  3.0421E+00  5.3009E+01  3.6182E+00  2.8220E+00  2.5703E+00  2.0834E+00
  1.9929E+00
  1.9929E+00  1.6944E+00  1.4088E+00  1.2015E+00  9.2455E-01  7.4108E-01
  4.5556E-01  3.0165E-01  1.6160E-01  1.0215E-01  7.0701E-02  5.1782E-02
  3.1069E-02  2.0638E-02  9.6329E-03  5.5491E-03  3.5990E-03  3.5990E-03
  2.5190E-03  1.4284E-03  1.1312E-03  9.1791E-04  7.5959E-04  6.3888E-04
  5.4477E-04  4.0960E-04  3.6014E-04  3.1913E-04  2.5564E-04  2.3080E-04
  2.2100E-04  1.4779E-04  1.3665E-04  1.1784E-04  1.0268E-04  9.0271E-05
  7.1358E-05  5.7782E-05  5.5310E-05  4.7726E-05  3.4180E-05  2.5688E-05
  1.4449E-05  9.2485E-06  6.4219E-06  4.7185E-06  3.6135E-06  2.8552E-06
  2.3125E-06  1.9115E-06  1.6055E-06  1.3682E-06  1.1796E-06  1.0277E-06
  9.0314E-07  7.1365E-07  5.7797E-07  4.7772E-07  4.0145E-07  3.4205E-07
  2.9487E-07  2.5688E-07  1.4451E-07  9.2485E-08  6.4219E-08  3.6120E-08
  2.3125E-08  1.0275E-08  5.7797E-09  2.5688E-09  1.4451E-09  9.2485E-10
  6.4219E-10  3.6120E-10  2.3125E-10  1.0275E-10  5.7797E-11  2.5688E-11
  1.4451E-11  9.2485E-12  6.4219E-12  3.6120E-12  2.3125E-12  1.0275E-12
  5.7797E-13  2.5688E-13  1.4451E-13  9.2485E-14  6.4219E-14  3.6120E-14
  2.3125E-14
 INCOHERENT SCATTERING CROSS SECTION
  7.0792E-03  3.6991E-03  2.2891E-03  1.4202E-02  2.2040E-02  3.7175E-02
  4.0009E-02
  4.0009E-02  5.0230E-02  6.0993E-02  6.9707E-02  8.2927E-02  9.2877E-02
  1.1050E-01  1.2132E-01  1.3156E-01  1.3509E-01  1.3587E-01  1.3530E-01
  1.3216E-01  1.2803E-01  1.1758E-01  1.0868E-01  1.0132E-01  1.0132E-01
  9.5183E-02  8.5535E-02  8.1649E-02  7.8224E-02  7.5175E-02  7.2435E-02
  6.9951E-02  6.5607E-02  6.3692E-02  6.1918E-02  5.8735E-02  5.7300E-02
  5.6697E-02  5.1255E-02  5.0226E-02  4.8315E-02  4.6582E-02  4.5002E-02
  4.2205E-02  3.9768E-02  3.9270E-02  3.7630E-02  3.4115E-02  3.1296E-02
  2.6095E-02  2.2537E-02  1.9929E-02  1.7909E-02  1.6296E-02  1.4981E-02
  1.3881E-02  1.2946E-02  1.2141E-02  1.1439E-02  1.0821E-02  1.0274E-02
  9.7836E-03  8.9425E-03  8.2460E-03  7.6596E-03  7.1576E-03  6.7204E-03
  6.3390E-03  6.0028E-03  4.7697E-03  3.9828E-03  3.4311E-03  2.7060E-03
  2.2462E-03  1.5995E-03  1.2539E-03  8.8882E-04  6.9601E-04  5.7616E-04
  4.9340E-04  3.8532E-04  3.1703E-04  2.2145E-04  1.7140E-04  1.1914E-04
  9.1957E-05  7.5194E-05  6.3752E-05  4.9129E-05  4.0099E-05  2.7723E-05
  2.1316E-05  1.4695E-05  1.1282E-05  9.1882E-06  7.7666E-06  5.9546E-06
  4.8451E-06
 PHOTOELECTRIC ABSORPTION CROSS SECTION
  3.1808E+03  1.3090E+06  1.9479E+04  1.1018E+03  5.0938E+02  1.6824E+02
  1.4038E+02
  1.2729E+03  7.5541E+02  4.2104E+02  2.5808E+02  1.1698E+02  6.2320E+01
  1.9266E+01  8.2068E+00  2.4029E+00  9.9088E-01  4.9461E-01  2.7934E-01
  1.1275E-01  5.5642E-02  1.5437E-02  6.2802E-03  3.1655E-03  3.1655E-03
  1.8316E-03  7.9792E-04  5.7610E-04  4.3446E-04  3.3932E-04  2.7210E-04
  2.2278E-04  1.5874E-04  1.3806E-04  1.2212E-04  9.6989E-05  8.5867E-05
  8.1239E-05  5.5039E-05  5.1395E-05  4.5008E-05  3.9783E-05  3.5565E-05
  2.9234E-05  2.4708E-05  2.3879E-05  2.1314E-05  1.6618E-05  1.3554E-05
  9.1972E-06  6.9194E-06  5.5310E-06  4.6009E-06  3.9346E-06  3.4356E-06
  3.0482E-06  2.7391E-06  2.4859E-06  2.2748E-06  2.0969E-06  1.9447E-06
  1.8135E-06  1.5964E-06  1.4265E-06  1.2889E-06  1.1754E-06  1.0803E-06
  9.9932E-07  9.2967E-07  6.8938E-07  5.4767E-07  4.5436E-07  3.3873E-07
  2.6999E-07  1.7924E-07  1.3408E-07  8.9168E-08  6.6797E-08  5.3395E-08
  4.4486E-08  3.3346E-08  2.6668E-08  1.7773E-08  1.3322E-08  8.8791E-09
  6.6586E-09  5.3260E-09  4.4381E-09  3.3285E-09  2.6622E-09  1.7758E-09
  1.3314E-09  8.8761E-10  6.6571E-10  5.3260E-10  4.4381E-10  3.3285E-10
  2.6622E-10
 PAIR PROD. CROSS SECTION (ATOMIC NUCLEUS)
  0.0000E-01  0.0000E-01  0.0000E-01  0.0000E-01  0.0000E-01  0.0000E-01
  0.0000E-01
  0.0000E-01  0.0000E-01  0.0000E-01  0.0000E-01  0.0000E-01  0.0000E-01
  0.0000E-01  0.0000E-01  0.0000E-01  0.0000E-01  0.0000E-01  0.0000E-01
  0.0000E-01  0.0000E-01  0.0000E-01  0.0000E-01  0.0000E-01  0.0000E-01
  0.0000E-01  0.0000E-01  0.0000E-01  0.0000E-01  0.0000E-01  0.0000E-01
  0.0000E-01  0.0000E-01  0.0000E-01  0.0000E-01  0.0000E-01  0.0000E-01
  0.0000E-01  4.2602E-05  6.8391E-05  1.3745E-04  2.2718E-04  3.3448E-04
  5.9064E-04  8.8641E-04  9.5515E-04  1.2040E-03  1.8551E-03  2.4994E-03
  4.0250E-03  5.3787E-03  6.5893E-03  7.6671E-03  8.6364E-03  9.5138E-03
  1.0310E-02  1.1032E-02  1.1694E-02  1.2307E-02  1.2879E-02  1.3412E-02
  1.3913E-02  1.4828E-02  1.5648E-02  1.6386E-02  1.7065E-02  1.7668E-02
  1.8241E-02  1.8768E-02  2.0924E-02  2.2537E-02  2.3788E-02  2.5658E-02
  2.6999E-02  2.9185E-02  3.0512E-02  3.2095E-02  3.3014E-02  3.3617E-02
  3.4054E-02  3.4642E-02  3.5019E-02  3.5577E-02  3.5878E-02  3.6210E-02
  3.6391E-02  3.6496E-02  3.6572E-02  3.6677E-02  3.6738E-02  3.6828E-02
  3.6888E-02  3.6934E-02  3.6964E-02  3.6979E-02  3.6979E-02  3.6994E-02
  3.7009E-02
 PAIR PROD. CROSS SECTION (ATOMIC ELECTRONS)
  0.0000E-01  0.0000E-01  0.0000E-01  0.0000E-01  0.0000E-01  0.0000E-01
  0.0000E-01
  0.0000E-01  0.0000E-01  0.0000E-01  0.0000E-01  0.0000E-01  0.0000E-01
  0.0000E-01  0.0000E-01  0.0000E-01  0.0000E-01  0.0000E-01  0.0000E-01
  0.0000E-01  0.0000E-01  0.0000E-01  0.0000E-01  0.0000E-01  0.0000E-01
  0.0000E-01  0.0000E-01  0.0000E-01  0.0000E-01  0.0000E-01  0.0000E-01
  0.0000E-01  0.0000E-01  0.0000E-01  0.0000E-01  0.0000E-01  0.0000E-01
  0.0000E-01  0.0000E-01  0.0000E-01  0.0000E-01  0.0000E-01  0.0000E-01
  0.0000E-01  0.0000E-01  0.0000E-01  1.0475E-07  3.1076E-06  1.0949E-05
  4.4697E-05  8.9063E-05  1.3677E-04  1.8437E-04  2.3065E-04  2.7482E-04
  3.1703E-04  3.5697E-04  3.9466E-04  4.3039E-04  4.6431E-04  4.9657E-04
  5.2717E-04  5.8430E-04  6.3631E-04  6.8425E-04  7.2842E-04  7.6927E-04
  8.0741E-04  8.4284E-04  9.9148E-04  1.1060E-03  1.1980E-03  1.3387E-03
  1.4431E-03  1.6206E-03  1.7336E-03  1.8768E-03  1.9628E-03  2.0231E-03
  2.0683E-03  2.1286E-03  2.1708E-03  2.2311E-03  2.2658E-03  2.3050E-03
  2.3276E-03  2.3411E-03  2.3502E-03  2.3638E-03  2.3713E-03  2.3818E-03
  2.3894E-03  2.3954E-03  2.3984E-03  2.4014E-03  2.4029E-03  2.4045E-03
  2.4060E-03
