Beryllium                                                               
     1
     4
 1.000000
     1
    96
 ENERGY LIST
  1.0000E-03  1.0000E-04  5.0000E-04  1.5000E-03  2.0000E-03  3.0000E-03
  4.0000E-03  5.0000E-03  6.0000E-03  8.0000E-03  1.0000E-02  1.5000E-02
  2.0000E-02  3.0000E-02  4.0000E-02  5.0000E-02  6.0000E-02  8.0000E-02
  1.0000E-01  1.5000E-01  2.0000E-01  2.5000E-01  2.5000E-01  3.0000E-01
  4.0000E-01  4.5000E-01  5.0000E-01  5.5000E-01  6.0000E-01  6.5000E-01
  7.5000E-01  8.0000E-01  8.5000E-01  9.5000E-01  1.0000E+00  1.0220E+00
  1.2500E+00  1.3000E+00  1.4000E+00  1.5000E+00  1.6000E+00  1.8000E+00
  2.0000E+00  2.0440E+00  2.2000E+00  2.6000E+00  3.0000E+00  4.0000E+00
  5.0000E+00  6.0000E+00  7.0000E+00  8.0000E+00  9.0000E+00  1.0000E+01
  1.1000E+01  1.2000E+01  1.3000E+01  1.4000E+01  1.5000E+01  1.6000E+01
  1.8000E+01  2.0000E+01  2.2000E+01  2.4000E+01  2.6000E+01  2.8000E+01
  3.0000E+01  4.0000E+01  5.0000E+01  6.0000E+01  8.0000E+01  1.0000E+02
  1.5000E+02  2.0000E+02  3.0000E+02  4.0000E+02  5.0000E+02  6.0000E+02
  8.0000E+02  1.0000E+03  1.5000E+03  2.0000E+03  3.0000E+03  4.0000E+03
  5.0000E+03  6.0000E+03  8.0000E+03  1.0000E+04  1.5000E+04  2.0000E+04
  3.0000E+04  4.0000E+04  5.0000E+04  6.0000E+04  8.0000E+04  1.0000E+05
 COHERENT SCATTERING CROSS SECTION
  5.9184E-01  8.1796E+01  8.6437E-01  4.9475E-01  4.1029E-01  2.9616E-01
  2.3214E-01  1.9258E-01  1.6485E-01  1.2543E-01  9.7494E-02  5.5797E-02
  3.5382E-02  1.7701E-02  1.0538E-02  6.9562E-03  4.9201E-03  2.8226E-03
  1.8236E-03  8.1857E-04  4.6208E-04  2.9620E-04  2.9620E-04  2.0588E-04
  1.1594E-04  9.1638E-05  7.4239E-05  6.1354E-05  5.1553E-05  4.3932E-05
  3.3005E-05  2.9008E-05  2.5692E-05  2.0565E-05  1.8563E-05  1.7775E-05
  1.1881E-05  1.0985E-05  9.4723E-06  8.2525E-06  7.2537E-06  5.7313E-06
  4.6421E-06  4.4443E-06  3.8363E-06  2.7464E-06  2.0628E-06  1.1607E-06
  7.4306E-07  5.1580E-07  3.7895E-07  2.9014E-07  2.2927E-07  1.8570E-07
  1.5342E-07  1.2897E-07  1.0986E-07  9.4754E-08  8.2525E-08  7.2502E-08
  5.7307E-08  4.6421E-08  3.8363E-08  3.2235E-08  2.7464E-08  2.3682E-08
  2.0628E-08  1.1607E-08  7.4239E-09  5.1573E-09  2.9008E-09  1.8563E-09
  8.2525E-10  4.6408E-10  2.0628E-10  1.1600E-10  7.4239E-11  5.1567E-11
  2.9008E-11  1.8563E-11  8.2525E-12  4.6408E-12  2.0628E-12  1.1600E-12
  7.4239E-13  5.1567E-13  2.9008E-13  1.8563E-13  8.2525E-14  4.6408E-14
  2.0628E-14  1.1600E-14  7.4239E-15  5.1567E-15  2.9008E-15  1.8563E-15
 INCOHERENT SCATTERING CROSS SECTION
  2.0909E-02  1.9690E-01  8.3858E-03  3.7922E-02  5.2836E-02  7.3504E-02
  8.6267E-02  9.5623E-02  1.0344E-01  1.1627E-01  1.2616E-01  1.4113E-01
  1.4768E-01  1.5075E-01  1.4935E-01  1.4654E-01  1.4333E-01  1.3685E-01
  1.3077E-01  1.1814E-01  1.0845E-01  1.0075E-01  1.0075E-01  9.4420E-02
  8.4597E-02  8.0725E-02  7.7313E-02  7.4252E-02  7.1500E-02  6.9024E-02
  6.4724E-02  6.2833E-02  6.1081E-02  5.7927E-02  5.6498E-02  5.5897E-02
  5.0518E-02  4.9508E-02  4.7631E-02  4.5920E-02  4.4351E-02  4.1572E-02
  3.9185E-02  3.8703E-02  3.7104E-02  3.3625E-02  3.0825E-02  2.5713E-02
  2.2205E-02  1.9626E-02  1.7641E-02  1.6057E-02  1.4761E-02  1.3672E-02
  1.2756E-02  1.1961E-02  1.1266E-02  1.0658E-02  1.0124E-02  9.6358E-03
  8.8072E-03  8.1256E-03  7.5442E-03  7.0497E-03  6.6201E-03  6.2452E-03
  5.9131E-03  4.6989E-03  3.9225E-03  3.3799E-03  2.6655E-03  2.2125E-03
  1.5757E-03  1.2349E-03  8.7537E-04  6.8560E-04  5.6759E-04  4.8600E-04
  3.7955E-04  3.1226E-04  2.1804E-04  1.6879E-04  1.1734E-04  9.0611E-05
  7.4039E-05  6.2806E-05  4.8386E-05  3.9505E-05  2.7304E-05  2.0989E-05
  1.4474E-05  1.1113E-05  9.0477E-06  7.6511E-06  5.8657E-06  4.7724E-06
 PHOTOELECTRIC ABSORPTION CROSS SECTION
  6.0354E+02  2.0370E+06  4.9240E+03  1.7915E+02  7.4239E+01  2.0902E+01
  8.3661E+00  4.0808E+00  2.2593E+00  8.8205E-01  4.2292E-01  1.1006E-01
  4.2071E-02  1.0765E-02  4.0802E-03  1.9191E-03  1.0391E-03  3.9365E-04
  1.8590E-04  4.8179E-05  1.8810E-05  9.2218E-06  9.2218E-06  5.2342E-06
  2.2238E-06  1.5904E-06  1.1934E-06  9.3103E-07  7.4106E-07  5.9641E-07
  4.1969E-07  3.7360E-07  3.4465E-07  2.8003E-07  2.3227E-07  2.1009E-07
  1.4280E-07  1.3525E-07  1.1864E-07  1.0391E-07  9.2666E-08  7.6934E-08
  6.5780E-08  6.3668E-08  5.7109E-08  4.5039E-08  3.7086E-08  2.5600E-08
  1.9485E-08  1.5710E-08  1.3151E-08  1.1300E-08  9.9030E-09  8.8138E-09
  7.9452E-09  7.2235E-09  6.6261E-09  6.1182E-09  5.6832E-09  5.3050E-09
  4.6822E-09  4.1904E-09  3.7915E-09  3.4621E-09  3.1854E-09  2.9495E-09
  2.7464E-09  2.0421E-09  1.6251E-09  1.3498E-09  1.0077E-09  8.0387E-10
  5.3418E-10  3.9993E-10  2.6615E-10  1.9946E-10  1.5944E-10  1.3284E-10
  9.9565E-11  7.9652E-11  5.3084E-11  3.9806E-11  2.6528E-11  1.9900E-11
  1.5917E-11  1.3264E-11  9.9498E-12  7.9585E-12  5.3050E-12  3.9786E-12
  2.6522E-12  1.9893E-12  1.5910E-12  1.3264E-12  9.9431E-13  7.9585E-13
 PAIR PROD. CROSS SECTION (ATOMIC NUCLEUS)
  0.0000E-01  0.0000E-01  0.0000E-01  0.0000E-01  0.0000E-01  0.0000E-01
  0.0000E-01  0.0000E-01  0.0000E-01  0.0000E-01  0.0000E-01  0.0000E-01
  0.0000E-01  0.0000E-01  0.0000E-01  0.0000E-01  0.0000E-01  0.0000E-01
  0.0000E-01  0.0000E-01  0.0000E-01  0.0000E-01  0.0000E-01  0.0000E-01
  0.0000E-01  0.0000E-01  0.0000E-01  0.0000E-01  0.0000E-01  0.0000E-01
  0.0000E-01  0.0000E-01  0.0000E-01  0.0000E-01  0.0000E-01  0.0000E-01
  8.4196E-06  1.3687E-05  2.8066E-05  4.7063E-05  6.9985E-05  1.2494E-04
  1.8830E-04  2.0301E-04  2.5646E-04  3.9813E-04  5.4006E-04  8.7738E-04
  1.1781E-03  1.4480E-03  1.6893E-03  1.9071E-03  2.1049E-03  2.2853E-03
  2.4490E-03  2.5994E-03  2.7397E-03  2.8707E-03  2.9930E-03  3.1079E-03
  3.3197E-03  3.5102E-03  3.6826E-03  3.8409E-03  3.9859E-03  4.1203E-03
  4.2445E-03  4.7591E-03  5.1446E-03  5.4514E-03  5.9151E-03  6.2512E-03
  6.8092E-03  7.1633E-03  7.6044E-03  7.8650E-03  8.0387E-03  8.1724E-03
  8.3461E-03  8.4664E-03  8.6401E-03  8.7337E-03  8.8406E-03  8.8940E-03
  8.9341E-03  8.9609E-03  8.9943E-03  9.0143E-03  9.0410E-03  9.0611E-03
  9.0745E-03  9.0878E-03  9.0878E-03  9.0945E-03  9.1012E-03  9.1012E-03
 PAIR PROD. CROSS SECTION (ATOMIC ELECTRONS)
  0.0000E-01  0.0000E-01  0.0000E-01  0.0000E-01  0.0000E-01  0.0000E-01
  0.0000E-01  0.0000E-01  0.0000E-01  0.0000E-01  0.0000E-01  0.0000E-01
  0.0000E-01  0.0000E-01  0.0000E-01  0.0000E-01  0.0000E-01  0.0000E-01
  0.0000E-01  0.0000E-01  0.0000E-01  0.0000E-01  0.0000E-01  0.0000E-01
  0.0000E-01  0.0000E-01  0.0000E-01  0.0000E-01  0.0000E-01  0.0000E-01
  0.0000E-01  0.0000E-01  0.0000E-01  0.0000E-01  0.0000E-01  0.0000E-01
  0.0000E-01  0.0000E-01  0.0000E-01  0.0000E-01  0.0000E-01  0.0000E-01
  0.0000E-01  0.0000E-01  1.0315E-07  3.0607E-06  1.0785E-05  4.4036E-05
  8.7738E-05  1.3478E-04  1.8169E-04  2.2726E-04  2.7096E-04  3.1266E-04
  3.5222E-04  3.8957E-04  4.2492E-04  4.5873E-04  4.9074E-04  5.2135E-04
  5.7835E-04  6.3053E-04  6.7891E-04  7.2302E-04  7.6445E-04  8.0320E-04
  8.3929E-04  9.9231E-04  1.1126E-03  1.2095E-03  1.3612E-03  1.4761E-03
  1.6752E-03  1.8082E-03  1.9813E-03  2.0915E-03  2.1704E-03  2.2299E-03
  2.3141E-03  2.3722E-03  2.4611E-03  2.5132E-03  2.5713E-03  2.6047E-03
  2.6261E-03  2.6415E-03  2.6615E-03  2.6749E-03  2.6929E-03  2.7030E-03
  2.7130E-03  2.7197E-03  2.7230E-03  2.7257E-03  2.7283E-03  2.7304E-03
